\wavsamp version for S15.0, 2006 Sep 18
\processing time 15:08:07 PST 09/18/2006
\character channelID = 2
\char HISTORY ========== Parameters supplied to RIDGE program below ==========
\char HISTORY PROCESS 2008/04/24 07:56:04
\char HISTORY ridge v1.15  (nl_and_params v1.9)
\char HISTORY WAVSAMP_FILE = ./cal/wavsamp.tbl
\char HISTORY PROFILE_FILE = profile.tbl
\char HISTORY PSF_FOV_FILE = ./cal/psf_fov.tbl
\char HISTORY PCT_RANGE = 25.0, percent
\char HISTORY NUM_SIGMA = 3.0,
\char HISTORY MEDIAN_PTS = 5.0,
\char HISTORY NAMELIST_FILE = ./cdf/ridge.nl
\char HISTORY ========== RIDGE processing results summary below ==========
\char HISTORY FIND PEAKS: YES
\char HISTORY OVERALL BEST Max DN=2873.7 at PCT=33.50, found in region 0
\char HISTORY MED_FILT_SIZE = 5
\char HISTORY PERCENTAGE = 33.50  (cut was performed here)
\char HISTORY MAX_SIGNAL = 2873.7  (maximum signal value in DN)
\char HISTORY CUT_POS = 33.5  (pct at which the max signal was found)
\char HISTORY MAX_SIGNAL_IN_REGION = 0  (region where max signal was found)
\char HISTORY DET_THRESH = -4.22217  (number of sigma over threshold)
\char HISTORY DET_SIGMA = 589.956  (sigma value used to find threshold)
\COMMENT ========== Keywords from PROFILE table file below ==========
\char NAXIS   =                    2 / STANDARD FITS FORMAT
\char NAXIS1  =                  128
\char NAXIS2  =                  128
\char ORIGIN  = 'Spitzer Science Center' / Organization generating this FITS file
\char CREATOR = 'S17.2.0 '           / SW version used to create this FITS file
\char TELESCOP= 'Spitzer '
\char INSTRUME= 'IRSX    '
\char CAL_SET = 'C17.2.A '           / ID for the set of CAL files used
\char CHNLNUM =                    2 / 0=SL, 1=SH, 2=LL, 3=LH
\char FILENAME= 'IRSX.2.0024015360.0007.0010.01.mipl.fits' / File name
\char FILETYPE= 'fits-irs2d-flux'
\char EXPTYPE = 'sp      '           / Exposure Type
\char REQTYPE = 'AOR     '           / Request type (AOR,IER, or SER)
\char AOT_TYPE= 'IrsStare'           / Observation Template Type
\char AORLABEL= 'IRSS-3C 454.3 visit3 - 3C 454.3' / AOR Label
\char FOVNAME = 'IRS_Long-Lo_2nd_Order_2nd_Position' / Field of View Name
\char READMODE= 'RAW     '           / Readout Mode
\char 
\char           / PROPOSAL INFORMATION
\char 
\char OBSRVR  = 'Ann Wehrle'         / Observer Name
\char OBSRVRID=                14991 / Observer ID of Principal Investigator
\char PROCYCL =                    7 / Proposal Cycle
\char PROGID  =                  300 / Program ID
\char PROTITLE= 'A Second Huge Flare in Blazar 3C454.3' / Program Title
\char PROGCAT =                   31 / Program Category
\char 
\char           / TIME AND EXPOSURE INFORMATION
\char 
\char DATE_OBS= '2007-08-03T11:17:32.277' / Date & time at DCE start
\char MJD_OBS =        54315.4705125 / [days] MJD at DCE start (JD-2400000.5)
\char UTCS_OBS=        239411852.277 / [sec] J2000 ephem. time at DCE start
\char SCLK_OBS=         870607222.36 / [sec] SCLK time (since 1/1/1980) at DCE start
\char SAMPTIME=               1.0486 / [sec] Sample integration time
\char REQMODE =                    5 / ID for mode or type of request
\char EXPSTRTC=            870606994 / Exposure Start Timestamp Coarse
\char EXPSTRTF=                52165 / Exposure Start Timestamp Fine
\char GRPARVTC=            870607229 / [sec] Coarse Spacecraft Group Time
\char GRPARVTF=                    0 / [sec] Fine Spacecraft Group Time
\char AIRSCMDN=                   12 / Commanded number of DCEs for IRS
\char AIRS_DET=                    2 / Selected IRS detector for exposure command
\char AIRSEXPM=                    1 / Current Mode of the IRS Exp Manager
\char GRPTIME =               2.0972 / [sec] Group (w/ spin) integration time
\char DEADTIME=               6.2916 / [sec] Reset + boost(s) time
\char RAMPTIME=                14.68 / [sec] Ramp (total DCE) integration time
\char EXPTOT_T=               176.16 / [sec] Integr. time for all DCEs in exposure
\char AIRSERCT=                    0 / Number of IRS exposure errors
\char 
\char           / TARGET AND POINTING INFORMATION
\char 
\char OBJECT  = '3C 454.3'           / Target Name
\char OBJTYPE = 'TargetFixedSingle'  / Target Type
\char RA_HMS  = '22h53m59.4s'        / [hh:mm:ss.s] RA_SLT or CRVAL1 in sexagesimal
\char DEC_DMS = '+16d09m09s'         / [dd:mm:ss] DEC_SLT or CRVAL2 in sexagesimal
\char RA_RQST =           343.490625 / [deg] Commanded RA referenced to commanded FOV
\char DEC_RQST=           16.1482225 / [deg] Commanded Dec referenced to commanded FOV
\char PA_RQST =     55.9824462087025 / [deg] Requested pos. angle of axis 2 (E of N)
\char PM_RA   =                   0. / [arcsec/yr] Proper Motion in RA (J2000)
\char PM_DEC  =                   0. / [arcsec/yr] Proper Motion in Dec (J2000)
\char CRDER1  = 0.000300951423421221 / [deg] Uncertainty in RA of SI boresight
\char CRDER2  = 0.000300874727838434 / [deg] Uncertainty in DEC of SI boresight
\char SIGRA   =   0.0108796059155103 / [arcsec] RMS dispersion of RA over DCE
\char SIGDEC  =   0.0106259305454677 / [arcsec] RMS dispersion of DEC over DCE
\char SIGPA   =   0.0152262930100967 / [arcsec] RMS dispersion of PA over DCE
\char PTGDIFF =    0.799681642657098 / [arcsec] offset btwn actual and rqsted pntng
\char PTGDIFFX=    -0.61847536785257 / [arcsec] requested - actual pntg along axis 1
\char PTGDIFFY=    0.506932338875586 / [arcsec] requested - actual pntg along axis 2
\char RA_REF  =           343.490625 / [deg] Commanded RA (J2000) of ref. position
\char DEC_REF =           16.1482225 / [deg] Commanded Dec (J2000) of ref. position
\char USEDBPHF=                    T / T if Boresight Pointing History File was used.
\char RMS_JIT =  0.00637845824922124 / [arcsec] RMS jitter during DCE
\char RMS_JITY=  0.00408629490073654 / [arcsec] RMS jitter during DCE along Y
\char RMS_JITZ=  0.00489764470141241 / [arcsec] RMS jitter during DCE along Z
\char RA_FOV  =     343.490695862258 / [deg] RA at FOVID averaged over DCE
\char DEC_FOV =     16.1484339485753 / [deg] DEC at FOVID averaged over DCE
\char PA_FOV  =     57.1833279150536 / [deg] PA at FOVID averaged over DCE
\char RA_SLT  =     343.497357862058 / [deg] RA at slit center averaged over DCE
\char DEC_SLT =     16.1525609484515 / [deg] DEC at slit center averaged over DCE
\char PA_SLT  =     57.1851802483314 / [deg] PA at slit center averaged over DCE
\char CSDRADEC= 7.84501297809909E-06 / [deg] Costandard deviation in RA and Dec
\char CSD_JTYZ= -0.000402059857536345 / [arcsec] Costandard deviation of jitter in YZ
\char BPHFNAME= 'BPHF.0870566400.04.pntg' / Boresight Pointing History Filename
\char FOVVERSN= 'BodyFrames_FTU_22b.xls' / FOV/BodyFrames file version used
\char VHELCORR=                 25.2 / [km/sec] Correction to heliocentric velocity
\char VLSRCORR=                 32.9 / [km/sec] Correction to local standard of rest
\char SPTZR_X =      40614929.008523 / [km] Heliocentric x position
\char SPTZR_Y =    -134610900.612937 / [km] Heliocentric y position
\char SPTZR_Z =     -60057291.703281 / [km] Heliocentric z position
\char SPTZR_VX=            28.354917 / [km/sec] Heliocentric x velocity
\char SPTZR_VY=             6.735299 / [km/sec] Heliocentric y velocity
\char SPTZR_VZ=              3.46129 / [km/sec] Heliocentric z velocity
\char ET_OBS  =         239411917.46 / Ephemeris Time (seconds past J2000 epoch)
\char HMJD_OBS=        54315.4727302 / Corresponding Heliocen. Mod. Julian Date
\char 
\char 
\char           / PHOTOMETRY (IRS IMAGING)
\char 
\char BUNIT   = 'e-/sec  '           / Units of image data
\char 
\char           / SPECTROPHOTOMETRY IRS SL, LL (CHNLNUM 0, 2)
\char 
\char FLXCON01=            4898.3911 / [electrons/sec/Jy] Flux conversion Order 1
\char FLXERR01=                124.5 / Flux conversion uncertainties Order 1
\char FLXCON02=            4783.3545 / [electrons/sec/Jy] Flux conversion Order 2
\char FLXERR02=                124.5 / Flux conversion uncertainties Order 2
\char FLXCON03=             4936.832 / [electrons/sec/Jy] Flux conversion Bonus Order
\char FLXERR03=                124.5 / Flux conversion uncertainties Order 3
\char 
\char           / GENERAL MAPPING KEYWORDS
\char 
\char DBEXPOID=              6584855 / Currnet Exposure ID
\char 
\char           / IRS PEAKUP KEYWORDS
\char 
\char PKUPMODE= 'IRS     '           / Peakup mode (none, IRS, or PCRS)
\char PKUPACCU= 'High    '           / Peakup Accuracy (high, moderate,low)
\char PKUPFILT= 'BLUE    '           / Peakup filter (blue or red)
\char PKUPFLUX=                  32. / Flux density of peakup target for IRS [mJy] or
\char PKUPXTND=                    F / Extended source (T/F)
\char ISPUPOS =                    T / PU target given in absolute positions (T) or re
\char PKUPRA  =     343.291648196987 / [deg] RA peakup position
\char PKUPDEC =     16.5082927083332 / [deg] Dec peakup position
\char PM_PKRA =               -0.051 / [''/yr]Proper motion for RA peakup position
\char PM_PKDEC=               -0.037 / [''/yr]Proper motion for Dec peakup position
\char HP_CENQ =                    0 / Peakup centroid quality code
\char APKUPCEN=                    1 / Status of the peakup centroid
\char AXCNTRD1=                10801 / [centipixels] X value of the brightest centroid
\char AYCNTRD1=                 2827 / [centipixels] Y value of the brightest centroid
\char AXCNTRD2=                    0 / [centipixels] X value of the second brightest c
\char AYCNTRD2=                    0 / [centipixels] Y value of the second brightest c
\char AINTENS1=               155570 / [counts] Intensity value of the brightest centr
\char AINTENS2=                    0 / [counts] Intensity value of the second brightes
\char APKUPXCE=                10801 / [centipixels] X value of the centroid to be ret
\char APKUPYCE=                 2827 / [centipixels] Y value of the centroid to be ret
\char 
\char 
\char           / DATA FLOW KEYWORDS
\char 
\char DATE    = '2008-04-24T14:49:40' / [YYYY-MM-DDThh:mm:ss UTC] file creation date
\char AORKEY  = '24015360'           / AOR or EIR key. Astrnmy Obs Req/Instr Eng Req
\char EXPID   =                    7 / Exposure ID (0-9999)
\char DCENUM  =                   10 / DCE number (0-9999)
\char TLMGRPS =                    8 / Number of expected telemetry groups
\char FILE_VER=                    1 / Version of the raw file made by SIS
\char RAWNAME = 'IRSX.2.0024015360.0007.0010.01.mipl.fits' / Raw data file name
\char SIS_SVER= 'J5.3    '           / SIS SW VERsion
\char CPT_VER = '3.1.11  '           / Channel Param Table FOS version
\char CTD_VER = '3.0.94S '           / Cmded telemetry data version
\char EXPDFLAG=                    F / (T/F) expedited DCE
\char MISS_LCT=                    0 / Total Missed Line Cnt in this FITS
\char MANCPKT =                    F / T if this FITS is Missing Ancillary Data
\char MISSDATA=                    F / T if this FITS is Missing Image Data
\char PAONUM  =                 2521 / PAO Number
\char CAMPAIGN= 'IRSX008300'         / Campaign
\char DCEID   =             84060888 / Data-Collection-Event ID
\char DCEINSID=             17610675 / DCE Instance ID
\char DPID    =            210860497 / Data Product Instance ID
\char PIPENUM =                  201 / Pipeline Script Number
\char SOS_VER =                   1. / Data-Product Version
\char PLVID   =                   10 / Pipeline Version ID
\char CALID   =                    4 / CalTrans Version ID
\char ORIGIN0 = 'JPL_FOS '           / site where RAW FITS files was written
\char CREATOR0= 'J5.3    '           / SW system that created RAW FITS
\char 
\char GAIN1   =                  4.6 / e/DN conversion (readout channel 1)
\char GAIN2   =                  4.6 / e/DN conversion (readout channel 2)
\char GAIN3   =                  4.6 / e/DN conversion (readout channel 3)
\char GAIN4   =                  4.6 / e/DN conversion (readout channel 4)
\char BASECH1 =             36929.31 / Trimmed mean channel 1 signal in reference unil
\char BASECH2 =             38884.98 / Trimmed mean channel 2 signal in reference unil
\char BASECH3 =             37257.56 / Trimmed mean channel 3 signal in reference unil
\char BASECH4 =             34460.69 / Trimmed mean channel 4 signal in reference unil
\char 
\HISTORY PROCESS 2008/04/24 07:56:04
\HISTORY profile v3.6  (integrate (library) v1.31, nl_and_params v1.9)
\HISTORY INFILE = bcd_fp.fits
\HISTORY WAVSAMP_FILE = ./cal/wavsamp.tbl
\HISTORY FOVTABLE_FILE = ./cal/psf_fov.tbl
\HISTORY N_CUTS = 100,
\HISTORY BMASKFILE = bmask.fits
\HISTORY BMASKFILE_FATAL = 29056,
\HISTORY NAMELIST_FILE = ./cdf/profile.nl
\int CHNLNUM = 2
\int FOVID   = 45
\int ORDER1 = 2
\int ORDER2 = 3
|order    |wavelength       |angle      |x0        |y0        |x1        |y1        |x2        |y2        |x3        |y3        |x_ridge_r |y_ridge_r |x_ridge_l |y_ridge_l |
|int      |real             |real       |real      |real      |real      |real      |real      |real      |real      |real      |real      |real      |real      |real      |
 2         13.90000          -1.200000   95.27889   80.60396   61.28635   81.31601   61.26574   80.39252   95.25829   79.68048   72.6739    81.0775    72.6532    80.1540    
 2         13.98468          -1.200000   95.25829   79.68048   61.26574   80.39252   61.24607   79.46904   95.23861   78.75700   72.6532    80.1540    72.6336    79.2305    
 2         14.06935          -1.200000   95.23861   78.75700   61.24607   79.46904   61.22733   78.54556   95.21987   77.83351   72.6336    79.2305    72.6148    78.3070    
 2         14.15403          -1.200000   95.21987   77.83351   61.22733   78.54556   61.20953   77.62207   95.20207   76.91003   72.6148    78.3070    72.5970    77.3835    
 2         14.23871          -1.200000   95.20207   76.91003   61.20953   77.62207   61.19266   76.69859   95.18520   75.98655   72.5970    77.3835    72.5802    76.4601    
 2         14.32338          -1.200000   95.18520   75.98655   61.19266   76.69859   61.17673   75.77511   95.16927   75.06306   72.5802    76.4601    72.5642    75.5366    
 2         14.40806          -1.200000   95.16927   75.06306   61.17673   75.77511   61.16174   74.85162   95.15428   74.13958   72.5642    75.5366    72.5492    74.6131    
 2         14.49274          -1.200000   95.15428   74.13958   61.16174   74.85162   61.14767   73.92814   95.14022   73.21610   72.5492    74.6131    72.5352    73.6896    
 2         14.57741          -1.200000   95.14022   73.21610   61.14767   73.92814   61.13455   73.00466   95.12709   72.29261   72.5352    73.6896    72.5220    72.7661    
 2         14.66209          -1.200000   95.12709   72.29261   61.13455   73.00466   61.12236   72.08117   95.11490   71.36913   72.5220    72.7661    72.5099    71.8426    
 2         14.74677          -1.200000   95.11490   71.36913   61.12236   72.08117   61.11111   71.15769   95.10365   70.44565   72.5099    71.8426    72.4986    70.9192    
 2         14.83145          -1.200000   95.10365   70.44565   61.11111   71.15769   61.10079   70.23421   95.09333   69.52217   72.4986    70.9192    72.4883    69.9957    
 2         14.91612          -1.200000   95.09333   69.52217   61.10079   70.23421   61.09141   69.31072   95.08395   68.59868   72.4883    69.9957    72.4789    69.0722    
 2         15.00080          -1.200000   95.08395   68.59868   61.09141   69.31072   61.08296   68.38724   95.07550   67.67520   72.4789    69.0722    72.4705    68.1487    
 2         15.08548          -1.200000   95.07550   67.67520   61.08296   68.38724   61.07545   67.46376   95.06799   66.75172   72.4705    68.1487    72.4630    67.2252    
 2         15.17015          -1.200000   95.06799   66.75172   61.07545   67.46376   61.06887   66.54027   95.06141   65.82823   72.4630    67.2252    72.4564    66.3017    
 2         15.25483          -1.200000   95.06141   65.82823   61.06887   66.54027   61.06323   65.61679   95.05577   64.90475   72.4564    66.3017    72.4507    65.3783    
 2         15.33951          -1.200000   95.05577   64.90475   61.06323   65.61679   61.05853   64.69331   95.05107   63.98127   72.4507    65.3783    72.4460    64.4548    
 2         15.42418          -1.200000   95.05107   63.98127   61.05853   64.69331   61.05476   63.76982   95.04730   63.05778   72.4460    64.4548    72.4423    63.5313    
 2         15.50886          -1.200000   95.04730   63.05778   61.05476   63.76982   61.05192   62.84634   95.04447   62.13430   72.4423    63.5313    72.4394    62.6078    
 2         15.59354          -1.200000   95.04447   62.13430   61.05192   62.84634   61.05003   61.92286   95.04257   61.21082   72.4394    62.6078    72.4375    61.6843    
 2         15.67821          -1.200000   95.04257   61.21082   61.05003   61.92286   61.04906   60.99937   95.04161   60.28733   72.4375    61.6843    72.4366    60.7608    
 2         15.76289          -1.200000   95.04161   60.28733   61.04906   60.99937   61.04904   60.07589   95.04158   59.36385   72.4366    60.7608    72.4365    59.8374    
 2         15.84757          -1.200000   95.04158   59.36385   61.04904   60.07589   61.04994   59.15241   95.04249   58.44037   72.4365    59.8374    72.4374    58.9139    
 2         15.93224          -1.200000   95.04249   58.44037   61.04994   59.15241   61.05179   58.22892   95.04433   57.51688   72.4374    58.9139    72.4393    57.9904    
 2         16.01692          -1.200000   95.04433   57.51688   61.05179   58.22892   61.05457   57.30544   95.04711   56.59340   72.4393    57.9904    72.4421    57.0669    
 2         16.10160          -1.200000   95.04711   56.59340   61.05457   57.30544   61.05828   56.38196   95.05083   55.66992   72.4421    57.0669    72.4458    56.1434    
 2         16.18628          -1.200000   95.05083   55.66992   61.05828   56.38196   61.06293   55.45847   95.05548   54.74643   72.4458    56.1434    72.4504    55.2199    
 2         16.27095          -1.200000   95.05548   54.74643   61.06293   55.45847   61.06852   54.53499   95.06106   53.82295   72.4504    55.2199    72.4560    54.2965    
 2         16.35563          -1.200000   95.06106   53.82295   61.06852   54.53499   61.07504   53.61151   95.06758   52.89947   72.4560    54.2965    72.4625    53.3730    
 2         16.44031          -1.200000   95.06758   52.89947   61.07504   53.61151   61.08250   52.68803   95.07504   51.97598   72.4625    53.3730    72.4700    52.4495    
 2         16.52498          -1.200000   95.07504   51.97598   61.08250   52.68803   61.09089   51.76454   95.08343   51.05250   72.4700    52.4495    72.4784    51.5260    
 2         16.60966          -1.200000   95.08343   51.05250   61.09089   51.76454   61.10022   50.84106   95.09276   50.12902   72.4784    51.5260    72.4877    50.6025    
 2         16.69434          -1.200000   95.09276   50.12902   61.10022   50.84106   61.11048   49.91758   95.10303   49.20553   72.4877    50.6025    72.4980    49.6790    
 2         16.77901          -1.200000   95.10303   49.20553   61.11048   49.91758   61.12168   48.99409   95.11423   48.28205   72.4980    49.6790    72.5092    48.7556    
 2         16.86369          -1.200000   95.11423   48.28205   61.12168   48.99409   61.13382   48.07061   95.12636   47.35857   72.5092    48.7556    72.5213    47.8321    
 2         16.94837          -1.200000   95.12636   47.35857   61.13382   48.07061   61.14689   47.14713   95.13943   46.43508   72.5213    47.8321    72.5344    46.9086    
 2         17.03304          -1.200000   95.13943   46.43508   61.14689   47.14713   61.16089   46.22364   95.15344   45.51160   72.5344    46.9086    72.5484    45.9851    
 2         17.11772          -1.200000   95.15344   45.51160   61.16089   46.22364   61.17584   45.30016   95.16838   44.58812   72.5484    45.9851    72.5633    45.0616    
 2         17.20240          -1.200000   95.16838   44.58812   61.17584   45.30016   61.19171   44.37668   95.18426   43.66463   72.5633    45.0616    72.5792    44.1381    
